wavelengths,emissivity
350,-4.02
351,-3.67
352,1.56
353,-5.35
354,0.68
355,-3.53
356,-3.27
357,-3.09
358,-1.86
359,0.31
360,21.5
361,0.7
362,0.83
363,-3.83
364,1.84
365,-0.47
366,2.38
367,-0.69
368,0.57
369,-0.16
370,3.9
371,1.25
372,2.74
373,2.23
374,2.42
375,2.4
376,2.78
377,3.09
378,2
379,4.47
380,6.3
381,1.22
382,7.67
383,2.58
384,3.81
385,9.61
386,6.81
387,9.68
388,5
389,9.28
390,5.79
391,9.14
392,9.26
393,7.23
394,17.17
395,14.1
396,12.36
397,13.6
398,14.24
399,11.66
400,16.43
401,14.97
402,20.76
403,21.58
404,20.63
405,20.48
406,24.07
407,21.68
408,21.56
409,25.51
410,31.74
411,28.94
412,27.28
413,25.4
414,33.14
415,28.47
416,34.35
417,32.43
418,35.69
419,32.94
420,38.14
421,45.26
422,42.25
423,42.7
424,40.86
425,47.39
426,51.07
427,55.09
428,57.96
429,57.92
430,57.3
431,63.83
432,64.04
433,67.92
434,67.53
435,67.92
436,93.97
437,91.44
438,82.83
439,84.42
440,88.37
441,92.9
442,91.73
443,90.07
444,96.05
445,100.95
446,99.63
447,105.27
448,105.92
449,107.57
450,114.97
451,111.22
452,116.54
453,127.68
454,113.03
455,129.05
456,137.43
457,141.87
458,148.47
459,144.94
460,156.07
461,160.59
462,153.48
463,172.34
464,182.92
465,171.84
466,188.66
467,184.1
468,203.19
469,209.13
470,214.91
471,231.79
472,239.76
473,243.16
474,256.49
475,273.39
476,288.34
477,295.28
478,321.9
479,331.89
480,347.22
481,358.42
482,376.73
483,393.09
484,425.87
485,445.16
486,447.72
487,479.31
488,491.79
489,512.22
490,523.48
491,532.03
492,552.33
493,567.95
494,574.04
495,600.73
496,627.5
497,622.35
498,626.24
499,643.15
500,664.35
501,666.63
502,672.58
503,698.89
504,706.82
505,706.84
506,715.53
507,739.05
508,753.17
509,762.03
510,760.8
511,770.12
512,792.96
513,796.29
514,805.38
515,827.72
516,832.91
517,857.16
518,851.45
519,866.12
520,882.07
521,895.45
522,901.97
523,915.87
524,926.5
525,950.65
526,964.11
527,954.98
528,958.64
529,970.94
530,976.13
531,1005.1
532,1007.99
533,1019.37
534,1034.06
535,1029.91
536,1056.35
537,1066.01
538,1071.3
539,1071.65
540,1096.82
541,1114.6
542,1147.77
543,1177.13
544,1206.01
545,1189.96
546,1192.43
547,1199.21
548,1175.67
549,1210.7
550,1208.21
551,1240.63
552,1231.47
553,1248.37
554,1259.19
555,1237.2
556,1254.59
557,1244.28
558,1256.78
559,1298.29
560,1307.73
561,1312.6
562,1296.75
563,1319.22
564,1314.33
565,1345.49
566,1329.28
567,1344.26
568,1363.24
569,1365.49
570,1376.34
571,1383.31
572,1389.21
573,1406.91
574,1428.75
575,1437.19
576,1430.86
577,1409.82
578,1436.87
579,1444.31
580,1450
581,1450.53
582,1467.74
583,1477.19
584,1472.97
585,1484.49
586,1486.86
587,1502.37
588,1514.38
589,1517.09
590,1510.26
591,1532.15
592,1538.81
593,1547.69
594,1569.95
595,1582.29
596,1570.13
597,1580.27
598,1578.64
599,1592.83
600,1579.13
601,1620.56
602,1626.1
603,1618.53
604,1628.1
605,1660.17
606,1665.43
607,1661.98
608,1673.94
609,1680.96
610,1688.91
611,1716.78
612,1781.44
613,1745.17
614,1724.57
615,1727.75
616,1734.73
617,1747.36
618,1750.52
619,1754.6
620,1751.62
621,1737.86
622,1789.13
623,1764.24
624,1779.55
625,1774.59
626,1782.23
627,1797.25
628,1789.55
629,1805.09
630,1796.46
631,1801.17
632,1781.69
633,1797.99
634,1784.61
635,1807.63
636,1807.47
637,1826.46
638,1806.08
639,1816.06
640,1805.06
641,1815.25
642,1806.47
643,1831.18
644,1802.31
645,1828.54
646,1816.03
647,1828.53
648,1811.39
649,1826.11
650,1845.68
651,1804.9
652,1809.18
653,1814.35
654,1826.28
655,1824.83
656,1807.51
657,1807.27
658,1824.04
659,1808.05
660,1838.01
661,1853.99
662,1829.1
663,1853.2
664,1820.39
665,1834.75
666,1829.48
667,1824.26
668,1831.94
669,1806.71
670,1828.37
671,1805.48
672,1830.59
673,1849.07
674,1831.61
675,1832.81
676,1830.49
677,1831.65
678,1808.23
679,1800.36
680,1812.17
681,1829.42
682,1809.72
683,1804.54
684,1794.53
685,1779.18
686,1799.46
687,1778.5
688,1790.69
689,1783.84
690,1769.1
691,1772.23
692,1770.38
693,1778.88
694,1758.78
695,1771.05
696,1755.8
697,1758.86
698,1730.07
699,1727.02
700,1719.92
701,1732.52
702,1709.94
703,1711.9
704,1693.77
705,1706.41
706,1717.98
707,1690.53
708,1672.55
709,1688
710,1661.57
711,1658.11
712,1653.6
713,1640.49
714,1644.48
715,1660
716,1632.14
717,1627.32
718,1628.65
719,1624.01
720,1620.8
721,1606.55
722,1610.25
723,1595.23
724,1608.99
725,1592.06
726,1575.08
727,1567.07
728,1575.84
729,1572.61
730,1562.83
731,1577.63
732,1555.9
733,1576.26
734,1543.4
735,1556.13
736,1554.09
737,1552.22
738,1548.81
739,1535.87
740,1562.11
741,1529.22
742,1527.06
743,1538.68
744,1532.99
745,1507.53
746,1509.24
747,1500.72
748,1488.64
749,1505.86
750,1512.82
751,1514.78
752,1490.21
753,1492.91
754,1497.15
755,1503.53
756,1486
757,1496.97
758,1476.51
759,1480.68
760,1462.79
761,1443.87
762,1470.94
763,1465.96
764,1454.6
765,1466.64
766,1438.21
767,1463.65
768,1427.3
769,1415.25
770,1443.48
771,1421.04
772,1401.81
773,1424.77
774,1426.99
775,1410.81
776,1402.96
777,1398.39
778,1395.9
779,1383.63
780,1382.88
781,1371.16
782,1380.83
783,1384.76
784,1367.97
785,1376.61
786,1352.56
787,1350.25
788,1346.71
789,1356.45
790,1347.35
791,1318.83
792,1337.12
793,1314.22
794,1342.85
795,1327.29
796,1345.33
797,1344.91
798,1330.76
799,1383.33
800,1358.14
801,1371.38
802,1360.21
803,1366.62
804,1389.25
805,1377.36
806,1366.85
807,1387.6
808,1368.68
809,1384.09
810,1360.27
811,1355.04
812,1375
813,1354.42
814,1341.11
815,1362.67
816,1364.19
817,1342.95
818,1346.44
819,1340.1
820,1321.04
821,1333.86
822,1308.74
823,1316.82
824,1321.82
825,1311.71
826,1312
827,1300.44
828,1288.27
829,1289.52
830,1300.29
831,1297.32
832,1273.65
833,1260.39
834,1270.84
835,1281.93
836,1254.53
837,1247.84
838,1249.51
839,1260.04
840,1243.44
841,1249.98
842,1224.71
843,1239.67
844,1230.68
845,1244.31
846,1228.5
847,1224.13
848,1217.8
849,1215.02
850,1212.63
851,1193.44
852,1206.09
853,1205.11
854,1190.67
855,1201.64
856,1187.66
857,1190.44
858,1186.87
859,1182.22
860,1180.68
861,1159.64
862,1184.85
863,1157.43
864,1157.71
865,1144.3
866,1146.31
867,1143.51
868,1127.79
869,1135.35
870,1117.76
871,1095.51
872,1097.13
873,1095.81
874,1109.45
875,1100.22
876,1105.04
877,1102
878,1092.13
879,1122.64
880,1072.22
881,1108.44
882,1113.23
883,1122.16
884,1124.43
885,1134.66
886,1129.47
887,1132.87
888,1158.97
889,1138.29
890,1148.51
891,1149.36
892,1142.14
893,1154.01
894,1164.95
895,1164.96
896,1117.37
897,1152.49
898,1166.28
899,1141.04
900,1128.99
901,1142.91
902,1143.68
903,1150.51
904,1132.68
905,1134.26
906,1129.77
907,1114.11
908,1108.53
909,1094.71
910,1071.94
911,1105.13
912,1076.01
913,1067.59
914,1052.73
915,1049.22
916,1058.1
917,1035.61
918,1019.59
919,1015.8
920,986.82
921,982.17
922,993.36
923,976.85
924,952.8
925,952.66
926,948.87
927,925.8
928,931.75
929,920.76
930,924.45
931,902.19
932,892.57
933,863.3
934,858.94
935,847.48
936,846.19
937,831.68
938,824.38
939,821.8
940,814.16
941,802.03
942,776.58
943,780.65
944,770.97
945,751.69
946,739.61
947,740.25
948,726.63
949,723.71
950,700.46
951,689.1
952,694
953,679.42
954,677.69
955,666.54
956,654.26
957,646.42
958,633.76
959,629.41
960,630.08
961,604.87
962,605.56
963,596.3
964,587.76
965,577.35
966,564.21
967,554.37
968,542.8
969,550.41
970,521.26
971,515.78
972,514.98
973,506.54
974,495.56
975,481.1
976,467.31
977,462.21
978,452.38
979,440.8
980,434.42
981,442.85
982,435.38
983,422.31
984,422.06
985,404.93
986,408.67
987,383.77
988,383.43
989,369.64
990,360.3
991,362.34
992,341.27
993,338.09
994,337.58
995,331.07
996,320.08
997,312.96
998,311.43
999,286.74
1000,297.66
